      [Nr]      [ml]      [pH]       [s]      dy/dx
         0    0.0000     6.072     0.000         OO
         1    0.0500     6.072    81.197      0.000
         2    0.1000     5.756   162.213     -6.308
         3    0.1500     5.469   243.230     -5.735
         4    0.2000     5.355   324.266     -2.294
         5    0.2500     5.082   405.313     -5.448
         6    0.3000     5.297   486.359      4.301
         7    0.3500     5.082   567.406     -4.301
         8    0.4000     4.921   648.453     -3.226
         9    0.4500     4.707   729.499     -4.287
        10    0.5000     4.537   810.536     -3.398
        11    0.5500     4.767   891.572      4.602
        12    0.6000     4.566   972.609     -4.014
        13    0.6500     4.254  1053.655     -6.251
        14    0.7000     4.495  1134.672      4.817
        15    0.7500     4.336  1215.698     -3.168
        16    0.8000     4.179  1296.745     -3.140
        17    0.8500     4.007  1377.791     -3.441
        18    0.9000     4.151  1458.828      2.867
        19    0.9500     4.007  1539.864     -2.867
        20    1.0000     3.878  1620.901     -2.581
        21    1.0500     3.749  1701.937     -2.581
        22    1.1000     3.821  1782.974      1.434
        23    1.1500     3.706  1864.010     -2.294
        24    1.2000     3.606  1945.057     -2.007
        25    1.2500     3.510  2026.104     -1.921
        26    1.3000     3.548  2107.140      0.774
        27    1.3500     3.462  2188.177     -1.720
        28    1.4000     3.378  2269.213     -1.692
        29    1.4500     3.311  2350.250     -1.333
        30    1.5000     3.328  2431.286      0.344
        31    1.5500     3.262  2512.333     -1.333
        32    1.6000     3.204  2593.369     -1.147
        33    1.6500     3.147  2674.406     -1.147
        34    1.7000     3.161  2755.442      0.287
        35    1.7500     3.104  2836.479     -1.147
        36    1.8000     3.061  2917.515     -0.860
        37    1.8500     3.018  2998.552     -0.860
        38    1.9000     3.018  3079.568      0.000
        39    1.9500     2.975  3161.997     -0.860
Date                   : 06-15-2023
Time                   : 19:05:08
Measure point          : 1
File name              : c:\multi_t\data\13615010.mtd
Method file            : c:\multi_t\sol1.mtm
Method Multi_T         : pH equivalence point [PEQ]
Method created         : 19.04.18  14:33:21
Method changed / User  : 15.06.23  19:05:06 / 
User                   : 
Sample name            : Sample # 1
Sample-rem             : 
Sensor input           : INP # 1 : pH:Electrode ID 9999
Titration burette      : ADR # 1 : Tuni-00693394:0.1M HCl
Dosing burette         : not used:Solution A
W01                    :     1.000000
W02                    :     1.000000
W03                    :     1.000000
DataSort1              : DS1
DataSort12             : DS12
DataSort13             : DS13
TabStatus              : TS
Status                 : 128
